Frequency (Hz)	Level (dB)
46.875000	-40.338703
93.750000	-36.494980
140.625000	-36.938282
187.500000	-32.868633
234.375000	-23.601906
281.250000	-22.008938
328.125000	-25.679382
375.000000	-29.695656
421.875000	-28.128729
468.750000	-32.416618
515.625000	-34.527245
562.500000	-39.087826
609.375000	-45.337189
656.250000	-48.530125
703.125000	-52.870365
750.000000	-61.020103
796.875000	-62.073013
843.750000	-61.086349
890.625000	-59.431904
937.500000	-57.440151
984.375000	-55.426044
1031.250000	-58.095413
1078.125000	-56.573017
1125.000000	-56.948090
1171.875000	-56.043938
1218.750000	-56.084064
1265.625000	-55.555904
1312.500000	-53.737419
1359.375000	-49.156452
1406.250000	-48.023708
1453.125000	-49.766228
1500.000000	-48.560627
1546.875000	-49.978119
1593.750000	-51.409641
1640.625000	-55.824585
1687.500000	-60.124638
1734.375000	-65.454895
1781.250000	-67.507515
1828.125000	-59.332920
1875.000000	-43.521992
1921.875000	-38.708504
1968.750000	-42.867802
2015.625000	-53.932117
2062.500000	-54.728436
2109.375000	-47.998726
2156.250000	-46.888935
2203.125000	-53.021988
2250.000000	-60.482384
2296.875000	-67.542717
2343.750000	-63.597206
2390.625000	-59.300026
2437.500000	-63.031471
2484.375000	-69.765663
2531.250000	-74.756256
2578.125000	-77.559509
2625.000000	-76.798309
2671.875000	-76.346344
2718.750000	-78.671150
2765.625000	-79.886497
2812.500000	-80.818306
2859.375000	-79.141876
2906.250000	-79.997231
2953.125000	-83.258110
3000.000000	-82.790848
3046.875000	-81.736305
3093.750000	-84.539879
3140.625000	-85.839630
3187.500000	-86.757339
3234.375000	-86.083542
3281.250000	-85.576225
3328.125000	-83.683136
3375.000000	-80.290703
3421.875000	-84.087868
3468.750000	-86.638184
3515.625000	-86.182800
3562.500000	-86.898216
3609.375000	-84.194588
3656.250000	-84.785912
3703.125000	-85.707481
3750.000000	-81.544624
3796.875000	-82.332993
3843.750000	-80.181656
3890.625000	-78.635887
3937.500000	-83.774155
3984.375000	-86.252991
4031.250000	-86.789627
4078.125000	-85.624496
4125.000000	-80.592918
4171.875000	-79.130447
4218.750000	-84.182526
4265.625000	-87.989174
4312.500000	-87.720673
4359.375000	-87.524605
4406.250000	-80.319321
4453.125000	-79.401237
4500.000000	-83.043190
4546.875000	-81.277138
4593.750000	-82.676422
4640.625000	-88.118851
4687.500000	-85.772461
4734.375000	-86.747864
4781.250000	-89.523972
4828.125000	-87.621674
4875.000000	-88.198738
4921.875000	-89.181435
4968.750000	-86.331665
5015.625000	-87.433029
5062.500000	-86.128632
5109.375000	-81.927612
5156.250000	-83.151726
5203.125000	-87.389694
5250.000000	-87.914856
5296.875000	-88.815392
5343.750000	-90.367744
5390.625000	-89.586761
5437.500000	-88.516037
5484.375000	-89.680611
5531.250000	-90.090286
5578.125000	-88.566086
5625.000000	-89.301384
5671.875000	-90.992393
5718.750000	-91.207443
5765.625000	-91.217995
5812.500000	-91.332184
5859.375000	-91.073822
5906.250000	-91.117065
5953.125000	-91.073662
6000.000000	-90.472610
6046.875000	-90.371628
6093.750000	-91.037834
6140.625000	-91.251442
6187.500000	-91.237869
6234.375000	-91.482567
6281.250000	-91.446808
6328.125000	-91.489677
6375.000000	-91.611633
6421.875000	-91.504768
6468.750000	-91.189659
6515.625000	-91.367737
6562.500000	-90.285812
6609.375000	-87.664986
6656.250000	-86.403099
6703.125000	-86.217468
6750.000000	-86.210648
6796.875000	-85.984314
6843.750000	-87.013733
6890.625000	-86.838875
6937.500000	-88.054237
6984.375000	-90.495346
7031.250000	-90.824478
7078.125000	-89.489510
7125.000000	-87.875999
7171.875000	-88.611282
7218.750000	-89.049843
7265.625000	-89.096420
7312.500000	-87.672348
7359.375000	-88.178497
7406.250000	-90.134239
7453.125000	-88.736771
7500.000000	-90.279480
7546.875000	-91.691185
7593.750000	-90.993309
7640.625000	-91.525650
7687.500000	-91.849297
7734.375000	-90.221886
7781.250000	-90.377335
7828.125000	-91.731171
7875.000000	-91.608467
7921.875000	-91.878677
7968.750000	-92.268982
8015.625000	-92.110497
8062.500000	-92.110954
8109.375000	-92.304337
8156.250000	-92.321213
8203.125000	-92.404099
8250.000000	-92.335037
8296.875000	-92.179031
8343.750000	-92.063431
8390.625000	-91.751587
8437.500000	-91.964890
8484.375000	-91.864105
8531.250000	-91.600731
8578.125000	-91.252998
8625.000000	-91.684128
8671.875000	-92.034904
8718.750000	-91.828087
8765.625000	-91.937523
8812.500000	-92.211349
8859.375000	-92.143661
8906.250000	-92.103203
8953.125000	-92.314339
9000.000000	-92.335197
9046.875000	-91.997139
9093.750000	-92.081947
9140.625000	-91.954193
9187.500000	-92.122459
9234.375000	-92.595909
9281.250000	-92.559731
9328.125000	-92.400208
9375.000000	-92.321472
9421.875000	-92.368843
9468.750000	-92.187492
9515.625000	-92.569473
9562.500000	-92.721733
9609.375000	-92.544449
9656.250000	-92.690720
9703.125000	-92.723190
9750.000000	-92.722313
9796.875000	-92.649994
9843.750000	-92.699448
9890.625000	-92.680969
9937.500000	-92.451546
9984.375000	-92.557121
10031.250000	-92.783768
10078.125000	-92.690361
10125.000000	-92.702309
10171.875000	-92.586861
10218.750000	-92.582817
10265.625000	-92.541382
10312.500000	-92.320488
10359.375000	-92.112434
10406.250000	-92.465614
10453.125000	-92.686821
10500.000000	-92.720192
10546.875000	-92.805000
10593.750000	-92.956154
10640.625000	-92.732880
10687.500000	-92.715538
10734.375000	-92.882950
10781.250000	-92.871918
10828.125000	-92.971680
10875.000000	-92.829849
10921.875000	-92.670975
10968.750000	-92.693199
11015.625000	-92.166115
11062.500000	-91.136169
11109.375000	-90.113655
11156.250000	-88.533600
11203.125000	-87.036087
11250.000000	-86.854828
11296.875000	-87.624077
11343.750000	-88.095909
11390.625000	-89.363983
11437.500000	-91.272392
11484.375000	-92.618484
11531.250000	-92.787338
11578.125000	-92.713745
11625.000000	-92.810623
11671.875000	-92.835678
11718.750000	-92.924255
11765.625000	-92.955254
11812.500000	-93.050850
11859.375000	-93.112366
11906.250000	-92.988792
11953.125000	-92.812073
12000.000000	-92.181335
12046.875000	-91.621071
12093.750000	-91.897110
12140.625000	-92.402710
12187.500000	-92.545151
12234.375000	-93.242554
12281.250000	-93.264832
12328.125000	-92.925072
12375.000000	-93.006516
12421.875000	-93.088890
12468.750000	-92.857246
12515.625000	-92.625542
12562.500000	-92.259148
12609.375000	-91.360489
12656.250000	-87.299080
12703.125000	-82.914169
12750.000000	-81.080284
12796.875000	-81.376015
12843.750000	-85.783859
12890.625000	-88.125816
12937.500000	-88.802757
12984.375000	-89.182571
13031.250000	-87.443634
13078.125000	-86.419525
13125.000000	-87.993935
13171.875000	-88.110756
13218.750000	-87.009705
13265.625000	-88.388466
13312.500000	-88.487984
13359.375000	-87.734627
13406.250000	-88.996315
13453.125000	-90.897034
13500.000000	-90.211189
13546.875000	-90.261536
13593.750000	-91.077515
13640.625000	-90.715523
13687.500000	-90.716011
13734.375000	-91.361679
13781.250000	-91.348709
13828.125000	-91.615929
13875.000000	-92.039825
13921.875000	-92.084724
13968.750000	-92.302353
14015.625000	-92.633484
14062.500000	-92.842163
14109.375000	-92.676613
14156.250000	-92.804153
14203.125000	-93.161964
14250.000000	-93.159859
14296.875000	-93.116806
14343.750000	-93.126236
14390.625000	-93.155045
14437.500000	-93.226250
14484.375000	-93.327690
14531.250000	-93.051056
14578.125000	-93.074265
14625.000000	-93.134911
14671.875000	-92.986206
14718.750000	-92.954216
14765.625000	-92.955200
14812.500000	-93.262489
14859.375000	-93.145065
14906.250000	-93.131508
14953.125000	-93.280952
15000.000000	-92.931137
15046.875000	-92.912697
15093.750000	-93.061890
15140.625000	-93.180710
15187.500000	-93.140800
15234.375000	-93.131416
15281.250000	-93.256332
15328.125000	-93.470085
15375.000000	-93.397461
15421.875000	-93.078773
15468.750000	-93.228401
15515.625000	-93.424065
15562.500000	-93.505547
15609.375000	-93.278091
15656.250000	-93.296501
15703.125000	-93.352142
15750.000000	-93.363785
15796.875000	-93.587234
15843.750000	-93.490562
15890.625000	-93.449036
15937.500000	-93.288681
15984.375000	-93.236153
16031.250000	-93.212021
16078.125000	-93.188400
16125.000000	-93.471924
16171.875000	-93.761765
16218.750000	-93.470741
16265.625000	-93.432373
16312.500000	-93.615509
16359.375000	-93.681725
16406.250000	-93.486160
16453.125000	-93.479652
16500.000000	-93.279984
16546.875000	-93.417046
16593.750000	-93.346817
16640.625000	-93.362160
16687.500000	-93.207642
16734.375000	-93.153854
16781.250000	-93.365067
16828.125000	-93.502022
16875.000000	-93.441811
16921.875000	-93.366066
16968.750000	-93.410141
17015.625000	-93.463692
17062.500000	-93.568237
17109.375000	-93.407471
17156.250000	-93.409309
17203.125000	-93.423523
17250.000000	-93.526443
17296.875000	-93.633385
17343.750000	-93.656288
17390.625000	-93.417465
17437.500000	-93.324722
17484.375000	-93.232384
17531.250000	-93.162788
17578.125000	-93.407639
17625.000000	-93.526161
17671.875000	-93.476646
17718.750000	-93.425163
17765.625000	-93.604538
17812.500000	-93.746254
17859.375000	-93.599060
17906.250000	-93.535263
17953.125000	-93.324982
18000.000000	-93.551605
18046.875000	-93.596115
18093.750000	-93.524605
18140.625000	-93.633614
18187.500000	-93.684433
18234.375000	-93.521690
18281.250000	-93.715416
18328.125000	-93.787422
18375.000000	-93.664040
18421.875000	-93.403496
18468.750000	-93.590561
18515.625000	-93.552444
18562.500000	-93.543159
18609.375000	-93.399010
18656.250000	-93.635132
18703.125000	-93.448280
18750.000000	-93.499786
18796.875000	-93.450989
18843.750000	-93.359787
18890.625000	-93.510902
18937.500000	-93.663788
18984.375000	-93.631393
19031.250000	-93.417557
19078.125000	-93.542976
19125.000000	-93.741692
19171.875000	-93.682137
19218.750000	-93.605843
19265.625000	-93.566437
19312.500000	-93.718849
19359.375000	-93.653114
19406.250000	-93.789574
19453.125000	-93.652489
19500.000000	-93.556465
19546.875000	-93.332497
19593.750000	-93.291496
19640.625000	-93.470215
19687.500000	-93.516846
19734.375000	-93.582993
19781.250000	-93.733284
19828.125000	-93.778473
19875.000000	-93.618027
19921.875000	-93.373688
19968.750000	-93.444626
20015.625000	-93.642014
20062.500000	-93.574570
20109.375000	-93.514633
20156.250000	-93.655365
20203.125000	-93.662941
20250.000000	-93.523239
20296.875000	-93.608299
20343.750000	-93.478172
20390.625000	-93.668434
20437.500000	-93.519936
20484.375000	-93.555908
20531.250000	-93.603172
20578.125000	-93.570602
20625.000000	-93.562241
20671.875000	-93.644302
20718.750000	-93.593437
20765.625000	-93.591461
20812.500000	-93.656387
20859.375000	-93.664665
20906.250000	-93.684906
20953.125000	-93.778435
21000.000000	-93.909248
21046.875000	-93.839905
21093.750000	-93.758446
21140.625000	-93.738594
21187.500000	-93.815651
21234.375000	-93.830780
21281.250000	-93.698921
21328.125000	-93.705055
21375.000000	-93.788452
21421.875000	-93.792641
21468.750000	-93.576378
21515.625000	-93.517433
21562.500000	-93.763855
21609.375000	-93.884399
21656.250000	-93.890755
21703.125000	-93.816422
21750.000000	-93.733978
21796.875000	-93.591919
21843.750000	-93.510681
21890.625000	-93.585823
21937.500000	-93.780792
21984.375000	-93.923172
22031.250000	-93.868561
22078.125000	-93.760521
22125.000000	-93.640396
22171.875000	-93.828148
22218.750000	-93.805367
22265.625000	-93.565430
22312.500000	-93.606911
22359.375000	-93.777840
22406.250000	-93.619377
22453.125000	-93.339645
22500.000000	-93.398857
22546.875000	-93.138115
22593.750000	-93.041718
22640.625000	-93.136108
22687.500000	-93.154617
22734.375000	-93.069435
22781.250000	-92.787437
22828.125000	-92.624062
22875.000000	-92.720253
22921.875000	-92.233002
22968.750000	-91.662766
23015.625000	-91.258896
23062.500000	-90.394531
23109.375000	-89.700394
23156.250000	-90.036423
23203.125000	-91.317955
23250.000000	-91.847160
23296.875000	-92.484207
23343.750000	-92.795410
23390.625000	-92.637779
23437.500000	-93.072273
23484.375000	-93.176247
23531.250000	-93.369446
23578.125000	-93.418343
23625.000000	-93.458420
23671.875000	-93.391769
23718.750000	-93.414253
23765.625000	-93.691208
23812.500000	-93.490005
23859.375000	-93.341270
23906.250000	-93.137199
23953.125000	-93.304626
