Frequency (Hz)	Level (dB)
46.875000	-39.221390
93.750000	-35.612026
140.625000	-35.458767
187.500000	-24.505646
234.375000	-14.229495
281.250000	-14.072950
328.125000	-21.884085
375.000000	-29.490877
421.875000	-29.563835
468.750000	-32.110023
515.625000	-32.217094
562.500000	-32.717567
609.375000	-38.727432
656.250000	-54.232582
703.125000	-60.119450
750.000000	-67.517525
796.875000	-69.332802
843.750000	-67.693047
890.625000	-66.901085
937.500000	-63.611713
984.375000	-59.453686
1031.250000	-60.498619
1078.125000	-56.342316
1125.000000	-57.168346
1171.875000	-59.108292
1218.750000	-56.845375
1265.625000	-56.630257
1312.500000	-58.228237
1359.375000	-53.544937
1406.250000	-54.345772
1453.125000	-62.507301
1500.000000	-63.875271
1546.875000	-61.312981
1593.750000	-61.169403
1640.625000	-63.475864
1687.500000	-65.116989
1734.375000	-69.775772
1781.250000	-72.881439
1828.125000	-73.693336
1875.000000	-62.531845
1921.875000	-56.151577
1968.750000	-57.796726
2015.625000	-64.422813
2062.500000	-65.255112
2109.375000	-55.701485
2156.250000	-51.591766
2203.125000	-55.685432
2250.000000	-66.113022
2296.875000	-70.640434
2343.750000	-70.763443
2390.625000	-67.111404
2437.500000	-65.677498
2484.375000	-67.997520
2531.250000	-73.241188
2578.125000	-80.286476
2625.000000	-79.598389
2671.875000	-79.306725
2718.750000	-82.046371
2765.625000	-83.382240
2812.500000	-85.139694
2859.375000	-85.454926
2906.250000	-85.991997
2953.125000	-84.157417
3000.000000	-84.253784
3046.875000	-81.835312
3093.750000	-83.826469
3140.625000	-87.373123
3187.500000	-88.684883
3234.375000	-88.298599
3281.250000	-86.622391
3328.125000	-83.084091
3375.000000	-80.177002
3421.875000	-83.995033
3468.750000	-87.103203
3515.625000	-87.397636
3562.500000	-87.792931
3609.375000	-87.847580
3656.250000	-88.366707
3703.125000	-88.480232
3750.000000	-87.449554
3796.875000	-85.974159
3843.750000	-86.444122
3890.625000	-87.505081
3937.500000	-86.698479
3984.375000	-87.141258
4031.250000	-89.293625
4078.125000	-89.380875
4125.000000	-89.298515
4171.875000	-89.476456
4218.750000	-89.385284
4265.625000	-89.200043
4312.500000	-89.342560
4359.375000	-89.073448
4406.250000	-88.576241
4453.125000	-87.174965
4500.000000	-86.144066
4546.875000	-87.149704
4593.750000	-88.043106
4640.625000	-89.048927
4687.500000	-89.756210
4734.375000	-89.741249
4781.250000	-89.711929
4828.125000	-89.735916
4875.000000	-89.621300
4921.875000	-89.491821
4968.750000	-89.432770
5015.625000	-89.620712
5062.500000	-89.562790
5109.375000	-89.388840
5156.250000	-88.939560
5203.125000	-88.951347
5250.000000	-89.363937
5296.875000	-89.521858
5343.750000	-89.628418
5390.625000	-89.476204
5437.500000	-89.511780
5484.375000	-89.732140
5531.250000	-89.705223
5578.125000	-89.819176
5625.000000	-89.761223
5671.875000	-89.818398
5718.750000	-89.853111
5765.625000	-89.783768
5812.500000	-89.800056
5859.375000	-89.762390
5906.250000	-89.759727
5953.125000	-89.851036
6000.000000	-89.882637
6046.875000	-89.696289
6093.750000	-89.343826
6140.625000	-89.569328
6187.500000	-89.648613
6234.375000	-89.522949
6281.250000	-89.596069
6328.125000	-89.789162
6375.000000	-89.642227
6421.875000	-89.678856
6468.750000	-89.984474
6515.625000	-89.796196
6562.500000	-89.650856
6609.375000	-89.843201
6656.250000	-89.748787
6703.125000	-89.851227
6750.000000	-89.580879
6796.875000	-89.797195
6843.750000	-89.871765
6890.625000	-89.655052
6937.500000	-89.513390
6984.375000	-89.653458
7031.250000	-89.734245
7078.125000	-89.929825
7125.000000	-89.937920
7171.875000	-89.672485
7218.750000	-89.605049
7265.625000	-89.698303
7312.500000	-89.749893
7359.375000	-89.607597
7406.250000	-89.851486
7453.125000	-89.653931
7500.000000	-89.654625
7546.875000	-89.653488
7593.750000	-89.592163
7640.625000	-89.861900
7687.500000	-89.691612
7734.375000	-89.695877
7781.250000	-89.778175
7828.125000	-89.779793
7875.000000	-89.743904
7921.875000	-89.591179
7968.750000	-89.742165
8015.625000	-89.831177
8062.500000	-89.879646
8109.375000	-89.740601
8156.250000	-89.838509
8203.125000	-89.682236
8250.000000	-89.624596
8296.875000	-89.762001
8343.750000	-89.869576
8390.625000	-89.857056
8437.500000	-89.803947
8484.375000	-89.614113
8531.250000	-89.689415
8578.125000	-89.845802
8625.000000	-89.856651
8671.875000	-89.852074
8718.750000	-89.780182
8765.625000	-89.678467
8812.500000	-89.747040
8859.375000	-89.572296
8906.250000	-89.674339
8953.125000	-89.855354
9000.000000	-89.750908
9046.875000	-89.819061
9093.750000	-89.718109
9140.625000	-89.837990
9187.500000	-89.678581
9234.375000	-89.544731
9281.250000	-89.731018
9328.125000	-89.840996
9375.000000	-89.757103
9421.875000	-89.685966
9468.750000	-89.803360
9515.625000	-89.729263
9562.500000	-89.870399
9609.375000	-89.820152
9656.250000	-89.862946
9703.125000	-89.977356
9750.000000	-90.014862
9796.875000	-89.824089
9843.750000	-89.666664
9890.625000	-89.677620
9937.500000	-89.792641
9984.375000	-89.747269
10031.250000	-89.836128
10078.125000	-89.768173
10125.000000	-89.661179
10171.875000	-89.800552
10218.750000	-89.848328
10265.625000	-89.700668
10312.500000	-89.815910
10359.375000	-89.636986
10406.250000	-89.704773
10453.125000	-89.679459
10500.000000	-89.653656
10546.875000	-89.648407
10593.750000	-89.895683
10640.625000	-89.905678
10687.500000	-89.909409
10734.375000	-89.861992
10781.250000	-89.630989
10828.125000	-89.894455
10875.000000	-89.767303
10921.875000	-89.646729
10968.750000	-89.304916
11015.625000	-89.100250
11062.500000	-88.770798
11109.375000	-88.755486
11156.250000	-88.734192
11203.125000	-88.888878
11250.000000	-88.882805
11296.875000	-89.115059
11343.750000	-89.467209
11390.625000	-89.651321
11437.500000	-89.700928
11484.375000	-89.674026
11531.250000	-89.725830
11578.125000	-89.769470
11625.000000	-89.760742
11671.875000	-89.713158
11718.750000	-89.831268
11765.625000	-89.951988
11812.500000	-89.767616
11859.375000	-89.842171
11906.250000	-90.018951
11953.125000	-89.845802
12000.000000	-89.769417
12046.875000	-89.947456
12093.750000	-89.822502
12140.625000	-89.931404
12187.500000	-89.894081
12234.375000	-89.853844
12281.250000	-89.827271
12328.125000	-89.955521
12375.000000	-90.071136
12421.875000	-89.766479
12468.750000	-89.729561
12515.625000	-90.026962
12562.500000	-89.975822
12609.375000	-89.649902
12656.250000	-89.612183
12703.125000	-89.628510
12750.000000	-89.691849
12796.875000	-89.708954
12843.750000	-89.782631
12890.625000	-89.792755
12937.500000	-89.689636
12984.375000	-89.655212
13031.250000	-89.794868
13078.125000	-89.942711
13125.000000	-90.012657
13171.875000	-89.769531
13218.750000	-89.577858
13265.625000	-89.513626
13312.500000	-89.762688
13359.375000	-89.850281
13406.250000	-89.936119
13453.125000	-89.868912
13500.000000	-89.909271
13546.875000	-89.834473
13593.750000	-89.776924
13640.625000	-89.944611
13687.500000	-89.996681
13734.375000	-89.886978
13781.250000	-89.890114
13828.125000	-89.902122
13875.000000	-89.988434
13921.875000	-89.840401
13968.750000	-89.832176
14015.625000	-89.842728
14062.500000	-89.737297
14109.375000	-89.527687
14156.250000	-89.651649
14203.125000	-89.750778
14250.000000	-89.795036
14296.875000	-89.598503
14343.750000	-89.777657
14390.625000	-89.798103
14437.500000	-89.688026
14484.375000	-89.675072
14531.250000	-89.646675
14578.125000	-89.634361
14625.000000	-89.741203
14671.875000	-89.779747
14718.750000	-89.595512
14765.625000	-89.644806
14812.500000	-89.811295
14859.375000	-89.919960
14906.250000	-89.846359
14953.125000	-89.929443
15000.000000	-89.918930
15046.875000	-89.725975
15093.750000	-89.643143
15140.625000	-89.698509
15187.500000	-89.547920
15234.375000	-89.559601
15281.250000	-89.668251
15328.125000	-89.826706
15375.000000	-89.946518
15421.875000	-89.979187
15468.750000	-90.001572
15515.625000	-89.771515
15562.500000	-89.603104
15609.375000	-89.707970
15656.250000	-89.729942
15703.125000	-89.823059
15750.000000	-89.682434
15796.875000	-89.666458
15843.750000	-89.807533
15890.625000	-89.757584
15937.500000	-89.748848
15984.375000	-89.781746
16031.250000	-89.770966
16078.125000	-89.862160
16125.000000	-89.898293
16171.875000	-89.908577
16218.750000	-89.686813
16265.625000	-89.876320
16312.500000	-89.825989
16359.375000	-89.815285
16406.250000	-89.786659
16453.125000	-89.709946
16500.000000	-89.722618
16546.875000	-89.658310
16593.750000	-89.744362
16640.625000	-89.870689
16687.500000	-89.929810
16734.375000	-89.840759
16781.250000	-89.803192
16828.125000	-89.643837
16875.000000	-89.743576
16921.875000	-89.817703
16968.750000	-89.834572
17015.625000	-89.706039
17062.500000	-89.874405
17109.375000	-89.886055
17156.250000	-89.741241
17203.125000	-89.903633
17250.000000	-89.889816
17296.875000	-89.948807
17343.750000	-89.849831
17390.625000	-89.773232
17437.500000	-89.797623
17484.375000	-89.962013
17531.250000	-89.867157
17578.125000	-89.711792
17625.000000	-89.698280
17671.875000	-89.810089
17718.750000	-89.932449
17765.625000	-89.758728
17812.500000	-89.684639
17859.375000	-89.752602
17906.250000	-89.858124
17953.125000	-89.867332
18000.000000	-89.884949
18046.875000	-89.820686
18093.750000	-89.923073
18140.625000	-89.970604
18187.500000	-89.818642
18234.375000	-89.857063
18281.250000	-89.715614
18328.125000	-89.757881
18375.000000	-89.846848
18421.875000	-90.015579
18468.750000	-89.960503
18515.625000	-89.845070
18562.500000	-89.853989
18609.375000	-89.895065
18656.250000	-89.725441
18703.125000	-89.707779
18750.000000	-89.788551
18796.875000	-89.683594
18843.750000	-89.735840
18890.625000	-89.754776
18937.500000	-89.871117
18984.375000	-89.677971
19031.250000	-89.538300
19078.125000	-89.667694
19125.000000	-89.794502
19171.875000	-89.842285
19218.750000	-89.632919
19265.625000	-89.600365
19312.500000	-89.865913
19359.375000	-90.020271
19406.250000	-89.918259
19453.125000	-89.647186
19500.000000	-89.594414
19546.875000	-89.849617
19593.750000	-89.661194
19640.625000	-89.821327
19687.500000	-90.036049
19734.375000	-89.809830
19781.250000	-89.755737
19828.125000	-89.911110
19875.000000	-89.678810
19921.875000	-89.683868
19968.750000	-89.920776
20015.625000	-90.064407
20062.500000	-89.962250
20109.375000	-89.919968
20156.250000	-89.797882
20203.125000	-89.602074
20250.000000	-89.752182
20296.875000	-89.828407
20343.750000	-89.644653
20390.625000	-89.590508
20437.500000	-89.655823
20484.375000	-89.679642
20531.250000	-89.694801
20578.125000	-89.636307
20625.000000	-89.647011
20671.875000	-89.774666
20718.750000	-90.034050
20765.625000	-89.958580
20812.500000	-89.785973
20859.375000	-89.893265
20906.250000	-90.029579
20953.125000	-90.026726
21000.000000	-89.908966
21046.875000	-89.856865
21093.750000	-89.674400
21140.625000	-89.520775
21187.500000	-89.688744
21234.375000	-89.714348
21281.250000	-89.731117
21328.125000	-89.824150
21375.000000	-89.772972
21421.875000	-89.716408
21468.750000	-89.688828
21515.625000	-89.787003
21562.500000	-89.969536
21609.375000	-89.948784
21656.250000	-89.862007
21703.125000	-89.775993
21750.000000	-89.677773
21796.875000	-89.680435
21843.750000	-89.622490
21890.625000	-89.687935
21937.500000	-89.735985
21984.375000	-89.634682
22031.250000	-89.756317
22078.125000	-89.790459
22125.000000	-89.804474
22171.875000	-89.728287
22218.750000	-89.747002
22265.625000	-89.878700
22312.500000	-89.938545
22359.375000	-89.916389
22406.250000	-89.776756
22453.125000	-89.648521
22500.000000	-89.643929
22546.875000	-89.719757
22593.750000	-89.554237
22640.625000	-89.207687
22687.500000	-88.870636
22734.375000	-88.972313
22781.250000	-88.873688
22828.125000	-88.500351
22875.000000	-88.279877
22921.875000	-88.217461
22968.750000	-88.035530
23015.625000	-87.336296
23062.500000	-86.362671
23109.375000	-85.336044
23156.250000	-84.708374
23203.125000	-86.335907
23250.000000	-87.537300
23296.875000	-87.962173
23343.750000	-88.582726
23390.625000	-88.655319
23437.500000	-88.976097
23484.375000	-89.263290
23531.250000	-89.277168
23578.125000	-89.545067
23625.000000	-89.691238
23671.875000	-89.504242
23718.750000	-89.387863
23765.625000	-89.373993
23812.500000	-89.625137
23859.375000	-89.630173
23906.250000	-89.627563
23953.125000	-89.845879
