Frequency (Hz)	Level (dB)
46.875000	-40.906197
93.750000	-37.893063
140.625000	-37.563557
187.500000	-43.134914
234.375000	-42.013523
281.250000	-42.330120
328.125000	-42.308697
375.000000	-40.377995
421.875000	-39.550358
468.750000	-37.873581
515.625000	-39.064907
562.500000	-45.881763
609.375000	-51.031811
656.250000	-55.757111
703.125000	-63.378174
750.000000	-65.529343
796.875000	-67.342934
843.750000	-65.852180
890.625000	-60.971748
937.500000	-48.803547
984.375000	-41.592228
1031.250000	-43.900639
1078.125000	-59.417694
1125.000000	-66.467499
1171.875000	-63.055962
1218.750000	-60.494938
1265.625000	-58.657642
1312.500000	-55.581802
1359.375000	-56.964687
1406.250000	-56.898720
1453.125000	-52.783890
1500.000000	-49.077988
1546.875000	-52.986759
1593.750000	-57.619068
1640.625000	-63.051876
1687.500000	-68.531662
1734.375000	-71.302834
1781.250000	-70.867950
1828.125000	-66.432732
1875.000000	-48.809662
1921.875000	-43.575924
1968.750000	-44.546490
2015.625000	-45.943558
2062.500000	-54.214088
2109.375000	-55.611813
2156.250000	-56.942162
2203.125000	-61.870785
2250.000000	-68.039696
2296.875000	-72.770164
2343.750000	-71.393242
2390.625000	-68.826988
2437.500000	-69.817123
2484.375000	-75.374039
2531.250000	-76.811203
2578.125000	-79.428093
2625.000000	-79.864960
2671.875000	-78.957726
2718.750000	-80.370949
2765.625000	-81.142616
2812.500000	-82.701584
2859.375000	-80.649994
2906.250000	-80.869133
2953.125000	-73.202370
3000.000000	-67.441917
3046.875000	-72.934013
3093.750000	-82.819435
3140.625000	-83.997940
3187.500000	-86.049042
3234.375000	-85.871567
3281.250000	-85.450851
3328.125000	-86.162903
3375.000000	-85.759216
3421.875000	-85.993042
3468.750000	-85.386055
3515.625000	-83.758743
3562.500000	-85.881317
3609.375000	-85.527679
3656.250000	-85.716446
3703.125000	-85.758354
3750.000000	-82.315895
3796.875000	-83.226326
3843.750000	-81.718109
3890.625000	-78.790970
3937.500000	-80.504799
3984.375000	-74.003548
4031.250000	-75.668213
4078.125000	-85.355553
4125.000000	-82.883469
4171.875000	-81.258598
4218.750000	-84.807678
4265.625000	-86.180130
4312.500000	-84.156334
4359.375000	-85.093048
4406.250000	-78.572037
4453.125000	-70.037987
4500.000000	-65.058167
4546.875000	-70.706017
4593.750000	-82.294403
4640.625000	-86.801430
4687.500000	-85.735695
4734.375000	-85.642754
4781.250000	-86.789688
4828.125000	-85.295891
4875.000000	-85.857391
4921.875000	-86.472046
4968.750000	-78.587036
5015.625000	-77.466003
5062.500000	-83.786011
5109.375000	-82.528603
5156.250000	-83.654854
5203.125000	-86.702278
5250.000000	-87.136627
5296.875000	-86.804581
5343.750000	-87.936096
5390.625000	-86.802818
5437.500000	-85.150703
5484.375000	-85.935738
5531.250000	-86.082733
5578.125000	-86.025055
5625.000000	-86.853531
5671.875000	-87.832855
5718.750000	-87.810272
5765.625000	-87.698425
5812.500000	-87.849808
5859.375000	-87.882980
5906.250000	-88.038231
5953.125000	-83.849800
6000.000000	-79.195221
6046.875000	-83.530357
6093.750000	-87.811020
6140.625000	-88.141602
6187.500000	-87.947327
6234.375000	-87.945824
6281.250000	-88.041084
6328.125000	-87.961578
6375.000000	-88.127365
6421.875000	-88.237358
6468.750000	-87.463058
6515.625000	-87.382240
6562.500000	-87.837654
6609.375000	-85.689301
6656.250000	-84.182449
6703.125000	-84.703079
6750.000000	-84.955467
6796.875000	-83.263649
6843.750000	-84.367989
6890.625000	-83.755264
6937.500000	-82.951401
6984.375000	-83.734863
7031.250000	-85.481148
7078.125000	-86.884262
7125.000000	-86.388733
7171.875000	-87.042465
7218.750000	-87.384995
7265.625000	-87.763405
7312.500000	-87.063492
7359.375000	-87.305809
7406.250000	-88.004112
7453.125000	-87.347923
7500.000000	-87.880440
7546.875000	-88.227699
7593.750000	-88.130432
7640.625000	-88.185394
7687.500000	-88.210327
7734.375000	-88.010010
7781.250000	-87.979942
7828.125000	-88.223030
7875.000000	-88.586128
7921.875000	-88.621552
7968.750000	-85.831009
8015.625000	-84.715469
8062.500000	-87.920296
8109.375000	-88.329597
8156.250000	-87.905685
8203.125000	-88.114479
8250.000000	-88.085762
8296.875000	-88.122383
8343.750000	-88.287895
8390.625000	-87.992973
8437.500000	-88.047813
8484.375000	-88.149277
8531.250000	-87.834702
8578.125000	-88.074066
8625.000000	-88.676476
8671.875000	-88.629005
8718.750000	-88.318695
8765.625000	-88.165573
8812.500000	-88.323433
8859.375000	-88.132057
8906.250000	-88.093788
8953.125000	-88.364487
9000.000000	-87.931267
9046.875000	-87.372314
9093.750000	-87.491714
9140.625000	-88.089836
9187.500000	-88.110451
9234.375000	-88.213524
9281.250000	-88.293793
9328.125000	-88.247795
9375.000000	-88.361687
9421.875000	-88.363678
9468.750000	-88.449257
9515.625000	-88.571487
9562.500000	-88.463478
9609.375000	-88.334106
9656.250000	-88.544601
9703.125000	-88.572563
9750.000000	-88.516388
9796.875000	-88.552841
9843.750000	-88.555130
9890.625000	-88.577011
9937.500000	-88.289383
9984.375000	-86.519508
10031.250000	-86.913918
10078.125000	-88.290497
10125.000000	-88.089012
10171.875000	-88.142853
10218.750000	-88.546227
10265.625000	-88.652473
10312.500000	-88.407600
10359.375000	-88.304947
10406.250000	-88.276237
10453.125000	-88.369881
10500.000000	-88.300262
10546.875000	-88.467766
10593.750000	-88.610878
10640.625000	-88.656303
10687.500000	-88.333107
10734.375000	-88.278915
10781.250000	-88.445518
10828.125000	-88.678253
10875.000000	-88.782280
10921.875000	-88.030815
10968.750000	-84.044487
11015.625000	-82.818825
11062.500000	-84.080643
11109.375000	-80.039536
11156.250000	-80.143364
11203.125000	-80.753540
11250.000000	-76.802818
11296.875000	-76.612595
11343.750000	-80.048660
11390.625000	-81.723587
11437.500000	-83.911018
11484.375000	-86.838188
11531.250000	-87.838623
11578.125000	-87.971329
11625.000000	-88.302963
11671.875000	-88.821671
11718.750000	-88.696533
11765.625000	-88.628593
11812.500000	-88.641853
11859.375000	-88.314880
11906.250000	-88.139305
11953.125000	-87.776184
12000.000000	-86.332108
12046.875000	-86.962173
12093.750000	-87.438637
12140.625000	-87.933952
12187.500000	-88.077545
12234.375000	-88.537132
12281.250000	-88.790756
12328.125000	-88.536316
12375.000000	-88.390587
12421.875000	-88.611603
12468.750000	-88.313477
12515.625000	-87.418129
12562.500000	-85.494812
12609.375000	-82.466827
12656.250000	-72.311882
12703.125000	-65.026512
12750.000000	-61.123192
12796.875000	-60.349304
12843.750000	-64.517914
12890.625000	-67.049034
12937.500000	-68.246513
12984.375000	-64.051033
13031.250000	-64.469795
13078.125000	-67.204849
13125.000000	-68.956917
13171.875000	-68.166580
13218.750000	-66.177940
13265.625000	-68.070053
13312.500000	-68.271973
13359.375000	-66.981888
13406.250000	-68.914154
13453.125000	-72.216110
13500.000000	-69.066429
13546.875000	-72.097336
13593.750000	-78.039429
13640.625000	-79.222878
13687.500000	-79.155701
13734.375000	-82.686150
13781.250000	-84.976471
13828.125000	-85.556641
13875.000000	-85.771637
13921.875000	-85.311157
13968.750000	-84.004951
14015.625000	-84.884300
14062.500000	-87.347160
14109.375000	-87.972015
14156.250000	-88.166031
14203.125000	-88.397041
14250.000000	-88.353836
14296.875000	-88.346924
14343.750000	-88.326469
14390.625000	-88.216721
14437.500000	-88.379013
14484.375000	-87.976616
14531.250000	-87.821342
14578.125000	-88.266281
14625.000000	-88.332497
14671.875000	-88.174103
14718.750000	-88.112740
14765.625000	-88.296104
14812.500000	-88.567101
14859.375000	-88.434387
14906.250000	-88.190338
14953.125000	-87.725876
15000.000000	-86.711937
15046.875000	-87.580574
15093.750000	-88.362198
15140.625000	-88.582138
15187.500000	-88.496704
15234.375000	-88.486732
15281.250000	-88.359230
15328.125000	-88.341331
15375.000000	-88.548843
15421.875000	-88.481163
15468.750000	-88.572304
15515.625000	-88.518723
15562.500000	-88.842712
15609.375000	-88.726273
15656.250000	-88.542099
15703.125000	-88.546677
15750.000000	-88.612137
15796.875000	-88.836143
15843.750000	-88.424637
15890.625000	-88.487305
15937.500000	-88.696350
15984.375000	-88.630310
16031.250000	-88.380737
16078.125000	-88.472519
16125.000000	-88.809792
16171.875000	-88.642006
16218.750000	-88.738861
16265.625000	-88.753609
16312.500000	-88.786911
16359.375000	-88.925095
16406.250000	-88.588036
16453.125000	-88.716858
16500.000000	-88.809959
16546.875000	-88.754135
16593.750000	-88.459015
16640.625000	-88.658722
16687.500000	-88.821411
16734.375000	-88.570679
16781.250000	-88.752129
16828.125000	-88.858185
16875.000000	-88.612091
16921.875000	-88.728279
16968.750000	-88.627174
17015.625000	-88.802223
17062.500000	-88.800858
17109.375000	-88.659233
17156.250000	-88.587364
17203.125000	-88.639961
17250.000000	-88.741219
17296.875000	-88.902832
17343.750000	-88.792328
17390.625000	-88.509789
17437.500000	-88.562431
17484.375000	-88.544136
17531.250000	-88.475845
17578.125000	-88.589607
17625.000000	-88.756752
17671.875000	-88.810913
17718.750000	-88.774368
17765.625000	-88.710190
17812.500000	-88.560249
17859.375000	-88.640678
17906.250000	-88.814537
17953.125000	-88.857445
18000.000000	-88.437119
18046.875000	-88.627403
18093.750000	-88.751953
18140.625000	-88.729652
18187.500000	-88.683311
18234.375000	-88.634109
18281.250000	-88.547882
18328.125000	-88.587196
18375.000000	-88.595894
18421.875000	-88.759949
18468.750000	-88.687874
18515.625000	-88.616394
18562.500000	-88.557419
18609.375000	-88.646553
18656.250000	-88.460281
18703.125000	-88.485344
18750.000000	-88.652023
18796.875000	-88.684875
18843.750000	-88.873642
18890.625000	-88.848274
18937.500000	-88.747231
18984.375000	-88.619011
19031.250000	-88.775879
19078.125000	-88.588348
19125.000000	-88.431999
19171.875000	-88.848320
19218.750000	-88.811386
19265.625000	-88.695312
19312.500000	-88.698013
19359.375000	-88.697540
19406.250000	-88.699135
19453.125000	-88.838692
19500.000000	-88.843452
19546.875000	-88.882675
19593.750000	-88.812408
19640.625000	-88.821693
19687.500000	-88.898361
19734.375000	-88.671516
19781.250000	-88.834450
19828.125000	-88.713509
19875.000000	-88.672646
19921.875000	-88.951897
19968.750000	-89.106804
20015.625000	-88.751450
20062.500000	-88.546394
20109.375000	-88.704514
20156.250000	-88.803886
20203.125000	-88.474609
20250.000000	-88.615524
20296.875000	-88.920982
20343.750000	-88.562538
20390.625000	-88.468613
20437.500000	-88.517227
20484.375000	-88.609299
20531.250000	-88.814087
20578.125000	-88.821693
20625.000000	-88.686974
20671.875000	-88.901672
20718.750000	-88.774918
20765.625000	-88.614937
20812.500000	-88.861076
20859.375000	-88.888756
20906.250000	-88.644669
20953.125000	-88.556213
21000.000000	-88.853264
21046.875000	-88.776749
21093.750000	-88.673515
21140.625000	-88.457573
21187.500000	-88.509911
21234.375000	-88.677528
21281.250000	-88.992844
21328.125000	-88.891182
21375.000000	-88.755821
21421.875000	-88.660530
21468.750000	-88.815483
21515.625000	-88.816895
21562.500000	-89.059029
21609.375000	-89.060005
21656.250000	-88.822975
21703.125000	-88.729706
21750.000000	-88.809334
21796.875000	-88.975853
21843.750000	-88.997955
21890.625000	-89.086128
21937.500000	-88.895180
21984.375000	-88.724976
22031.250000	-88.531372
22078.125000	-88.760246
22125.000000	-88.812294
22171.875000	-88.790527
22218.750000	-88.860710
22265.625000	-88.824242
22312.500000	-88.945847
22359.375000	-88.812248
22406.250000	-88.506630
22453.125000	-88.647163
22500.000000	-88.730316
22546.875000	-88.749878
22593.750000	-88.659332
22640.625000	-88.618103
22687.500000	-88.769753
22734.375000	-88.690460
22781.250000	-88.825737
22828.125000	-88.912880
22875.000000	-88.777367
22921.875000	-88.622490
22968.750000	-88.561729
23015.625000	-88.776588
23062.500000	-89.001579
23109.375000	-89.091087
23156.250000	-89.015259
23203.125000	-88.515778
23250.000000	-88.545471
23296.875000	-88.590553
23343.750000	-88.414024
23390.625000	-88.582489
23437.500000	-88.267029
23484.375000	-87.820854
23531.250000	-88.523026
23578.125000	-87.827049
23625.000000	-88.281799
23671.875000	-88.411514
23718.750000	-87.738960
23765.625000	-88.413437
23812.500000	-88.339539
23859.375000	-88.422806
23906.250000	-88.603386
23953.125000	-88.456100
