Frequency (Hz)	Level (dB)
46.875000	-30.510542
93.750000	-35.806118
140.625000	-18.202541
187.500000	-13.615004
234.375000	-16.470768
281.250000	-21.574142
328.125000	-22.057165
375.000000	-24.498524
421.875000	-28.536316
468.750000	-23.158398
515.625000	-22.925566
562.500000	-32.236858
609.375000	-42.847511
656.250000	-45.893738
703.125000	-47.948864
750.000000	-50.803925
796.875000	-57.183712
843.750000	-55.635490
890.625000	-57.154003
937.500000	-59.436134
984.375000	-56.688099
1031.250000	-57.007225
1078.125000	-58.090614
1125.000000	-58.464249
1171.875000	-55.282459
1218.750000	-48.736038
1265.625000	-42.029716
1312.500000	-38.977100
1359.375000	-39.816273
1406.250000	-42.336884
1453.125000	-44.918793
1500.000000	-46.212063
1546.875000	-49.069901
1593.750000	-50.565201
1640.625000	-50.682323
1687.500000	-49.917805
1734.375000	-48.433044
1781.250000	-50.897884
1828.125000	-48.958302
1875.000000	-39.247044
1921.875000	-37.852989
1968.750000	-46.535606
2015.625000	-60.809025
2062.500000	-55.209454
2109.375000	-39.636318
2156.250000	-31.602245
2203.125000	-32.414856
2250.000000	-42.550625
2296.875000	-54.938679
2343.750000	-53.464935
2390.625000	-54.486931
2437.500000	-54.202831
2484.375000	-60.425739
2531.250000	-67.808334
2578.125000	-65.001701
2625.000000	-60.920074
2671.875000	-60.726208
2718.750000	-63.811348
2765.625000	-68.293716
2812.500000	-69.433350
2859.375000	-69.927444
2906.250000	-71.940369
2953.125000	-71.901131
3000.000000	-72.241402
3046.875000	-73.520798
3093.750000	-74.108604
3140.625000	-73.952545
3187.500000	-73.698143
3234.375000	-73.117249
3281.250000	-72.148155
3328.125000	-71.306366
3375.000000	-72.248199
3421.875000	-73.148972
3468.750000	-74.074532
3515.625000	-74.732819
3562.500000	-75.139603
3609.375000	-74.692207
3656.250000	-73.545349
3703.125000	-70.932487
3750.000000	-67.900101
3796.875000	-67.555428
3843.750000	-65.034058
3890.625000	-64.094536
3937.500000	-63.987823
3984.375000	-67.225716
4031.250000	-73.537674
4078.125000	-74.561043
4125.000000	-74.454865
4171.875000	-74.953781
4218.750000	-75.440498
4265.625000	-76.642845
4312.500000	-76.844559
4359.375000	-76.983452
4406.250000	-76.923508
4453.125000	-74.379005
4500.000000	-69.798164
4546.875000	-69.079651
4593.750000	-71.103325
4640.625000	-75.139114
4687.500000	-76.641525
4734.375000	-77.284737
4781.250000	-77.267967
4828.125000	-76.316963
4875.000000	-76.026451
4921.875000	-76.620735
4968.750000	-77.148468
5015.625000	-77.749435
5062.500000	-77.831779
5109.375000	-77.698196
5156.250000	-77.276207
5203.125000	-77.742950
5250.000000	-77.283463
5296.875000	-76.758705
5343.750000	-77.587959
5390.625000	-78.310158
5437.500000	-78.104797
5484.375000	-77.833565
5531.250000	-77.102348
5578.125000	-77.668442
5625.000000	-78.235313
5671.875000	-77.917290
5718.750000	-77.934647
5765.625000	-78.450096
5812.500000	-78.915253
5859.375000	-78.840515
5906.250000	-78.627289
5953.125000	-78.835304
6000.000000	-79.115051
6046.875000	-79.049080
6093.750000	-78.760803
6140.625000	-78.383614
6187.500000	-78.401802
6234.375000	-78.663834
6281.250000	-78.903725
6328.125000	-78.939178
6375.000000	-78.708755
6421.875000	-78.588249
6468.750000	-78.576294
6515.625000	-78.808197
6562.500000	-79.085075
6609.375000	-79.063370
6656.250000	-78.269516
6703.125000	-77.536667
6750.000000	-77.685738
6796.875000	-79.215157
6843.750000	-78.388885
6890.625000	-77.113731
6937.500000	-75.899895
6984.375000	-75.741287
7031.250000	-78.150505
7078.125000	-79.117264
7125.000000	-78.978539
7171.875000	-79.191048
7218.750000	-79.510986
7265.625000	-79.331100
7312.500000	-79.103424
7359.375000	-79.040207
7406.250000	-79.280548
7453.125000	-79.329231
7500.000000	-79.090492
7546.875000	-78.827774
7593.750000	-78.534317
7640.625000	-78.515312
7687.500000	-78.809814
7734.375000	-79.044388
7781.250000	-78.987717
7828.125000	-79.224327
7875.000000	-79.287560
7921.875000	-79.051590
7968.750000	-78.984886
8015.625000	-78.715950
8062.500000	-78.712318
8109.375000	-79.154434
8156.250000	-79.613678
8203.125000	-79.544380
8250.000000	-79.437119
8296.875000	-79.526154
8343.750000	-79.790398
8390.625000	-79.766373
8437.500000	-79.572998
8484.375000	-79.564606
8531.250000	-79.288971
8578.125000	-79.197777
8625.000000	-79.526894
8671.875000	-79.472824
8718.750000	-79.620789
8765.625000	-79.693619
8812.500000	-79.549576
8859.375000	-79.691605
8906.250000	-79.489983
8953.125000	-79.439346
9000.000000	-79.653107
9046.875000	-79.584686
9093.750000	-79.483459
9140.625000	-79.288078
9187.500000	-79.322090
9234.375000	-79.581352
9281.250000	-79.855278
9328.125000	-79.753120
9375.000000	-79.798309
9421.875000	-79.633545
9468.750000	-79.750786
9515.625000	-79.815590
9562.500000	-79.994606
9609.375000	-79.929924
9656.250000	-79.856476
9703.125000	-79.810326
9750.000000	-79.816856
9796.875000	-79.847298
9843.750000	-79.723763
9890.625000	-79.744385
9937.500000	-79.519829
9984.375000	-79.760521
10031.250000	-80.050201
10078.125000	-79.892326
10125.000000	-79.670326
10171.875000	-79.486763
10218.750000	-79.459427
10265.625000	-79.507523
10312.500000	-79.802559
10359.375000	-80.117706
10406.250000	-80.056450
10453.125000	-79.999458
10500.000000	-79.936386
10546.875000	-80.004860
10593.750000	-80.092995
10640.625000	-79.895050
10687.500000	-80.001747
10734.375000	-79.833069
10781.250000	-79.705315
10828.125000	-79.758400
10875.000000	-79.931236
10921.875000	-79.994514
10968.750000	-80.231117
11015.625000	-80.210915
11062.500000	-80.216492
11109.375000	-80.206581
11156.250000	-80.092506
11203.125000	-80.118050
11250.000000	-80.219604
11296.875000	-80.058144
11343.750000	-79.813202
11390.625000	-79.850243
11437.500000	-80.163734
11484.375000	-80.306633
11531.250000	-80.509109
11578.125000	-80.566368
11625.000000	-80.475449
11671.875000	-80.445724
11718.750000	-80.439667
11765.625000	-80.404465
11812.500000	-80.458153
11859.375000	-80.498634
11906.250000	-80.484215
11953.125000	-80.441322
12000.000000	-80.570343
12046.875000	-80.555763
12093.750000	-80.351067
12140.625000	-80.569572
12187.500000	-80.701698
12234.375000	-80.560242
12281.250000	-80.658249
12328.125000	-80.519897
12375.000000	-80.399078
12421.875000	-80.319977
12468.750000	-80.537521
12515.625000	-80.634216
12562.500000	-80.507019
12609.375000	-80.462639
12656.250000	-80.428078
12703.125000	-80.366669
12750.000000	-80.509071
12796.875000	-80.616005
12843.750000	-80.660522
12890.625000	-80.776222
12937.500000	-80.550774
12984.375000	-80.377831
13031.250000	-80.242378
13078.125000	-80.410194
13125.000000	-80.651917
13171.875000	-80.621552
13218.750000	-80.528236
13265.625000	-80.621201
13312.500000	-80.441757
13359.375000	-80.626907
13406.250000	-80.743980
13453.125000	-80.793449
13500.000000	-80.867981
13546.875000	-80.482109
13593.750000	-80.632576
13640.625000	-80.631516
13687.500000	-80.498199
13734.375000	-80.756073
13781.250000	-80.693161
13828.125000	-80.563171
13875.000000	-80.800217
13921.875000	-80.839699
13968.750000	-80.591118
14015.625000	-80.679619
14062.500000	-80.484276
14109.375000	-80.669907
14156.250000	-80.725258
14203.125000	-80.606133
14250.000000	-80.564720
14296.875000	-80.724594
14343.750000	-80.784172
14390.625000	-80.692322
14437.500000	-80.576736
14484.375000	-80.815140
14531.250000	-80.841248
14578.125000	-80.635498
14625.000000	-80.566071
14671.875000	-80.610596
14718.750000	-80.664169
14765.625000	-80.787735
14812.500000	-80.759506
14859.375000	-80.826431
14906.250000	-80.923950
14953.125000	-80.988251
15000.000000	-80.746941
15046.875000	-80.746246
15093.750000	-80.721184
15140.625000	-80.805466
15187.500000	-80.933571
15234.375000	-80.797272
15281.250000	-80.802887
15328.125000	-80.857933
15375.000000	-80.986786
15421.875000	-80.871414
15468.750000	-80.852013
15515.625000	-80.979858
15562.500000	-80.960663
15609.375000	-80.820549
15656.250000	-80.644722
15703.125000	-80.760483
15750.000000	-80.795525
15796.875000	-80.749931
15843.750000	-80.905190
15890.625000	-81.015755
15937.500000	-80.802765
15984.375000	-80.624886
16031.250000	-80.665932
16078.125000	-80.763123
16125.000000	-80.666634
16171.875000	-80.750740
16218.750000	-80.816780
16265.625000	-81.015739
16312.500000	-81.014771
16359.375000	-80.991753
16406.250000	-80.704613
16453.125000	-80.726631
16500.000000	-80.774956
16546.875000	-80.872192
16593.750000	-80.970276
16640.625000	-80.896385
16687.500000	-80.786583
16734.375000	-80.818268
16781.250000	-80.591484
16828.125000	-80.558182
16875.000000	-80.635391
16921.875000	-80.811134
16968.750000	-80.809311
17015.625000	-80.948761
17062.500000	-81.186584
17109.375000	-80.988113
17156.250000	-80.939857
17203.125000	-80.832932
17250.000000	-80.808014
17296.875000	-80.907410
17343.750000	-80.777184
17390.625000	-80.778564
17437.500000	-80.857948
17484.375000	-80.961632
17531.250000	-80.966713
17578.125000	-80.899635
17625.000000	-80.764854
17671.875000	-80.631630
17718.750000	-80.840340
17765.625000	-80.837341
17812.500000	-80.736664
17859.375000	-80.612648
17906.250000	-80.690079
17953.125000	-80.767815
18000.000000	-80.715759
18046.875000	-80.754646
18093.750000	-80.668266
18140.625000	-80.951103
18187.500000	-80.693634
18234.375000	-80.795944
18281.250000	-80.772186
18328.125000	-80.841843
18375.000000	-80.971710
18421.875000	-80.993843
18468.750000	-80.858307
18515.625000	-80.920563
18562.500000	-81.129555
18609.375000	-81.138245
18656.250000	-80.861244
18703.125000	-80.803864
18750.000000	-80.956635
18796.875000	-80.932030
18843.750000	-81.053299
18890.625000	-81.065735
18937.500000	-80.978249
18984.375000	-81.034607
19031.250000	-80.837471
19078.125000	-81.064590
19125.000000	-81.083786
19171.875000	-81.100288
19218.750000	-81.020676
19265.625000	-80.975388
19312.500000	-81.122940
19359.375000	-81.101486
19406.250000	-80.978134
19453.125000	-81.015800
19500.000000	-81.072517
19546.875000	-80.957169
19593.750000	-80.936462
19640.625000	-80.796089
19687.500000	-80.837463
19734.375000	-80.925179
19781.250000	-80.921753
19828.125000	-80.924614
19875.000000	-81.000031
19921.875000	-81.207443
19968.750000	-81.016388
20015.625000	-80.949089
20062.500000	-81.003975
20109.375000	-81.050194
20156.250000	-81.054451
20203.125000	-81.062286
20250.000000	-81.171585
20296.875000	-81.221367
20343.750000	-81.132210
20390.625000	-81.110786
20437.500000	-81.182404
20484.375000	-80.839973
20531.250000	-80.875885
20578.125000	-80.925507
20625.000000	-81.088379
20671.875000	-80.906982
20718.750000	-80.887230
20765.625000	-80.982132
20812.500000	-81.032860
20859.375000	-81.054070
20906.250000	-80.991333
20953.125000	-80.968544
21000.000000	-80.753998
21046.875000	-80.934891
21093.750000	-80.968033
21140.625000	-80.965446
21187.500000	-81.060364
21234.375000	-81.326622
21281.250000	-81.158073
21328.125000	-81.056328
21375.000000	-81.074562
21421.875000	-80.905495
21468.750000	-80.834770
21515.625000	-80.887276
21562.500000	-80.955666
21609.375000	-80.943977
21656.250000	-80.845108
21703.125000	-80.953522
21750.000000	-81.009377
21796.875000	-81.048599
21843.750000	-81.018135
21890.625000	-81.079468
21937.500000	-81.057220
21984.375000	-80.965042
22031.250000	-80.781921
22078.125000	-80.933083
22125.000000	-80.735779
22171.875000	-80.836151
22218.750000	-80.912704
22265.625000	-80.921364
22312.500000	-80.673935
22359.375000	-80.547112
22406.250000	-80.585846
22453.125000	-80.396637
22500.000000	-79.761566
22546.875000	-79.486671
22593.750000	-79.121033
22640.625000	-78.822159
22687.500000	-78.454231
22734.375000	-78.004822
22781.250000	-77.526894
22828.125000	-76.981926
22875.000000	-76.130493
22921.875000	-75.431068
22968.750000	-74.482941
23015.625000	-73.412170
23062.500000	-72.263519
23109.375000	-71.930992
23156.250000	-71.349083
23203.125000	-68.178253
23250.000000	-68.306068
23296.875000	-72.873604
23343.750000	-73.020470
23390.625000	-74.903511
23437.500000	-77.195633
23484.375000	-77.419975
23531.250000	-78.423607
23578.125000	-79.210487
23625.000000	-79.274109
23671.875000	-79.661896
23718.750000	-80.212440
23765.625000	-80.081482
23812.500000	-80.037643
23859.375000	-80.231155
23906.250000	-80.202728
23953.125000	-80.384369
