Frequency (Hz)	Level (dB)
46.875000	-42.247974
93.750000	-48.681957
140.625000	-33.326138
187.500000	-21.792801
234.375000	-15.516253
281.250000	-18.292057
328.125000	-26.759089
375.000000	-25.202559
421.875000	-28.993641
468.750000	-26.039606
515.625000	-26.757055
562.500000	-35.879261
609.375000	-45.964046
656.250000	-51.621975
703.125000	-56.177307
750.000000	-58.964317
796.875000	-67.635597
843.750000	-69.072403
890.625000	-63.245583
937.500000	-56.690556
984.375000	-55.303265
1031.250000	-59.597218
1078.125000	-56.693859
1125.000000	-58.413937
1171.875000	-55.288879
1218.750000	-51.558674
1265.625000	-53.937103
1312.500000	-57.462242
1359.375000	-60.534019
1406.250000	-62.069706
1453.125000	-58.897144
1500.000000	-56.570324
1546.875000	-59.451153
1593.750000	-62.677067
1640.625000	-65.090950
1687.500000	-66.161896
1734.375000	-65.179741
1781.250000	-68.168610
1828.125000	-70.253654
1875.000000	-60.667774
1921.875000	-53.559135
1968.750000	-55.076183
2015.625000	-60.032593
2062.500000	-62.993954
2109.375000	-52.037151
2156.250000	-46.424427
2203.125000	-49.466698
2250.000000	-59.608788
2296.875000	-66.486374
2343.750000	-65.892197
2390.625000	-65.323784
2437.500000	-65.090195
2484.375000	-66.840881
2531.250000	-73.355415
2578.125000	-80.003593
2625.000000	-76.454620
2671.875000	-75.935272
2718.750000	-77.751984
2765.625000	-80.089546
2812.500000	-82.526711
2859.375000	-82.977608
2906.250000	-85.488113
2953.125000	-86.544769
3000.000000	-86.459129
3046.875000	-84.517105
3093.750000	-82.753662
3140.625000	-83.378670
3187.500000	-84.746216
3234.375000	-85.991295
3281.250000	-85.657959
3328.125000	-84.558533
3375.000000	-84.587257
3421.875000	-83.242401
3468.750000	-82.744873
3515.625000	-83.446701
3562.500000	-83.478676
3609.375000	-84.888306
3656.250000	-86.388832
3703.125000	-85.175835
3750.000000	-81.933136
3796.875000	-80.158119
3843.750000	-79.495613
3890.625000	-79.776581
3937.500000	-77.793503
3984.375000	-80.319122
4031.250000	-86.922607
4078.125000	-89.070076
4125.000000	-89.148010
4171.875000	-89.391220
4218.750000	-89.263275
4265.625000	-89.702751
4312.500000	-89.587952
4359.375000	-88.957138
4406.250000	-86.789207
4453.125000	-83.108818
4500.000000	-80.627632
4546.875000	-80.783981
4593.750000	-80.531334
4640.625000	-85.247734
4687.500000	-89.967323
4734.375000	-90.314339
4781.250000	-90.073273
4828.125000	-89.468971
4875.000000	-89.094681
4921.875000	-89.540924
4968.750000	-90.026543
5015.625000	-90.267639
5062.500000	-90.211014
5109.375000	-90.033310
5156.250000	-88.903267
5203.125000	-88.513733
5250.000000	-89.482719
5296.875000	-89.894135
5343.750000	-90.407883
5390.625000	-90.469284
5437.500000	-90.449745
5484.375000	-90.327515
5531.250000	-90.358528
5578.125000	-90.621674
5625.000000	-90.582283
5671.875000	-90.410133
5718.750000	-90.292297
5765.625000	-90.326607
5812.500000	-90.454475
5859.375000	-90.625343
5906.250000	-90.662811
5953.125000	-90.662399
6000.000000	-90.771698
6046.875000	-90.553864
6093.750000	-90.271759
6140.625000	-90.405373
6187.500000	-90.443848
6234.375000	-90.540817
6281.250000	-90.324287
6328.125000	-90.363533
6375.000000	-90.336349
6421.875000	-90.458969
6468.750000	-90.618103
6515.625000	-90.615463
6562.500000	-90.620979
6609.375000	-90.404251
6656.250000	-90.328926
6703.125000	-90.045731
6750.000000	-89.956650
6796.875000	-90.108147
6843.750000	-89.169479
6890.625000	-87.862862
6937.500000	-87.288651
6984.375000	-89.008492
7031.250000	-90.320854
7078.125000	-90.436592
7125.000000	-90.462059
7171.875000	-90.585442
7218.750000	-90.700951
7265.625000	-90.312103
7312.500000	-89.989403
7359.375000	-90.310013
7406.250000	-90.478195
7453.125000	-90.823456
7500.000000	-90.673317
7546.875000	-90.329369
7593.750000	-90.316727
7640.625000	-90.432098
7687.500000	-90.774002
7734.375000	-90.904625
7781.250000	-90.456154
7828.125000	-90.174500
7875.000000	-90.215134
7921.875000	-90.136276
7968.750000	-90.062355
8015.625000	-90.330559
8062.500000	-90.381271
8109.375000	-90.450294
8156.250000	-90.645340
8203.125000	-90.744926
8250.000000	-90.432877
8296.875000	-90.367142
8343.750000	-90.560158
8390.625000	-90.575867
8437.500000	-90.777687
8484.375000	-90.658829
8531.250000	-90.381615
8578.125000	-90.481682
8625.000000	-90.469429
8671.875000	-90.417526
8718.750000	-90.823898
8765.625000	-90.946053
8812.500000	-90.816811
8859.375000	-90.625732
8906.250000	-90.615265
8953.125000	-90.382263
9000.000000	-90.278389
9046.875000	-90.475380
9093.750000	-90.558891
9140.625000	-90.800758
9187.500000	-91.004082
9234.375000	-90.712639
9281.250000	-90.630768
9328.125000	-90.607971
9375.000000	-90.666924
9421.875000	-90.742882
9468.750000	-90.739670
9515.625000	-90.602814
9562.500000	-90.773743
9609.375000	-90.840088
9656.250000	-90.723068
9703.125000	-90.614563
9750.000000	-90.707596
9796.875000	-90.694054
9843.750000	-90.557083
9890.625000	-90.871078
9937.500000	-90.791145
9984.375000	-90.798218
10031.250000	-90.508781
10078.125000	-90.476021
10125.000000	-90.504898
10171.875000	-90.495285
10218.750000	-90.514122
10265.625000	-90.586845
10312.500000	-90.368912
10359.375000	-90.650574
10406.250000	-90.810913
10453.125000	-90.877625
10500.000000	-90.795769
10546.875000	-90.674805
10593.750000	-90.663048
10640.625000	-90.452309
10687.500000	-90.394295
10734.375000	-90.514427
10781.250000	-90.590004
10828.125000	-90.195206
10875.000000	-90.144768
10921.875000	-89.698357
10968.750000	-88.699448
11015.625000	-87.460754
11062.500000	-86.335594
11109.375000	-86.760811
11156.250000	-87.113770
11203.125000	-87.074387
11250.000000	-86.881729
11296.875000	-87.375107
11343.750000	-88.760048
11390.625000	-90.000893
11437.500000	-90.405800
11484.375000	-90.532097
11531.250000	-90.726021
11578.125000	-90.783012
11625.000000	-90.879379
11671.875000	-90.662041
11718.750000	-90.363319
11765.625000	-90.192238
11812.500000	-90.500809
11859.375000	-90.612511
11906.250000	-90.646667
11953.125000	-90.565544
12000.000000	-90.536514
12046.875000	-90.590919
12093.750000	-90.496368
12140.625000	-90.510788
12187.500000	-90.476593
12234.375000	-90.705025
12281.250000	-90.814499
12328.125000	-90.938087
12375.000000	-90.889496
12421.875000	-90.555634
12468.750000	-90.700020
12515.625000	-90.662300
12562.500000	-90.609192
12609.375000	-90.547462
12656.250000	-90.629013
12703.125000	-90.500572
12750.000000	-90.598785
12796.875000	-90.712189
12843.750000	-90.718910
12890.625000	-90.721443
12937.500000	-90.845200
12984.375000	-90.955956
13031.250000	-90.921684
13078.125000	-90.754303
13125.000000	-90.743919
13171.875000	-90.702690
13218.750000	-90.737946
13265.625000	-90.850586
13312.500000	-90.661980
13359.375000	-90.661484
13406.250000	-90.743126
13453.125000	-90.668144
13500.000000	-90.645660
13546.875000	-90.615105
13593.750000	-90.716286
13640.625000	-90.804024
13687.500000	-90.784523
13734.375000	-90.527328
13781.250000	-90.640518
13828.125000	-90.797836
13875.000000	-90.904816
13921.875000	-90.885651
13968.750000	-90.788094
14015.625000	-90.683784
14062.500000	-90.781502
14109.375000	-90.726006
14156.250000	-90.941086
14203.125000	-90.866203
14250.000000	-90.911705
14296.875000	-90.890030
14343.750000	-90.868378
14390.625000	-90.706779
14437.500000	-90.709335
14484.375000	-90.628540
14531.250000	-90.806366
14578.125000	-90.925423
14625.000000	-90.658806
14671.875000	-90.711510
14718.750000	-90.652321
14765.625000	-90.489899
14812.500000	-90.505821
14859.375000	-90.692711
14906.250000	-90.663757
14953.125000	-90.770370
15000.000000	-90.761757
15046.875000	-90.650322
15093.750000	-90.646835
15140.625000	-90.745766
15187.500000	-90.857697
15234.375000	-91.056076
15281.250000	-90.850693
15328.125000	-90.844604
15375.000000	-90.846230
15421.875000	-90.876968
15468.750000	-90.869888
15515.625000	-90.874687
15562.500000	-90.724380
15609.375000	-90.647217
15656.250000	-90.505112
15703.125000	-90.713905
15750.000000	-90.818863
15796.875000	-90.867287
15843.750000	-90.973274
15890.625000	-90.882973
15937.500000	-90.718765
15984.375000	-90.590904
16031.250000	-90.551628
16078.125000	-90.785431
16125.000000	-90.711845
16171.875000	-90.880531
16218.750000	-90.874512
16265.625000	-90.823624
16312.500000	-90.858551
16359.375000	-90.743279
16406.250000	-90.837112
16453.125000	-90.853889
16500.000000	-90.924057
16546.875000	-90.881783
16593.750000	-90.849663
16640.625000	-90.775421
16687.500000	-90.839478
16734.375000	-90.973816
16781.250000	-90.832588
16828.125000	-90.718369
16875.000000	-90.864395
16921.875000	-90.852371
16968.750000	-90.648598
17015.625000	-90.600548
17062.500000	-90.789627
17109.375000	-90.655136
17156.250000	-90.551781
17203.125000	-90.820274
17250.000000	-90.869156
17296.875000	-90.787003
17343.750000	-90.800949
17390.625000	-90.637138
17437.500000	-90.476547
17484.375000	-90.584366
17531.250000	-90.631508
17578.125000	-90.853844
17625.000000	-90.997925
17671.875000	-90.946533
17718.750000	-90.986176
17765.625000	-90.870285
17812.500000	-90.878853
17859.375000	-90.957268
17906.250000	-90.934128
17953.125000	-90.743492
18000.000000	-90.721329
18046.875000	-90.717545
18093.750000	-90.635361
18140.625000	-90.532845
18187.500000	-90.646881
18234.375000	-90.656471
18281.250000	-90.713982
18328.125000	-90.986084
18375.000000	-90.859558
18421.875000	-90.667526
18468.750000	-90.864197
18515.625000	-90.842209
18562.500000	-90.856133
18609.375000	-90.656509
18656.250000	-90.775597
18703.125000	-90.809555
18750.000000	-90.669434
18796.875000	-90.879295
18843.750000	-90.953178
18890.625000	-90.706993
18937.500000	-90.787186
18984.375000	-90.683624
19031.250000	-90.724686
19078.125000	-90.720421
19125.000000	-90.781921
19171.875000	-90.562775
19218.750000	-90.637802
19265.625000	-90.755074
19312.500000	-90.724091
19359.375000	-90.716011
19406.250000	-90.821114
19453.125000	-90.673073
19500.000000	-90.651260
19546.875000	-90.680229
19593.750000	-90.528130
19640.625000	-90.618698
19687.500000	-90.636292
19734.375000	-90.709053
19781.250000	-90.629089
19828.125000	-90.478264
19875.000000	-90.601234
19921.875000	-90.718277
19968.750000	-90.658234
20015.625000	-90.832680
20062.500000	-91.074745
20109.375000	-90.957520
20156.250000	-90.784508
20203.125000	-90.781349
20250.000000	-90.880333
20296.875000	-90.814178
20343.750000	-90.787392
20390.625000	-90.820343
20437.500000	-90.758781
20484.375000	-90.771828
20531.250000	-90.640373
20578.125000	-90.536362
20625.000000	-90.685585
20671.875000	-90.756638
20718.750000	-90.847305
20765.625000	-90.822914
20812.500000	-90.818924
20859.375000	-90.883850
20906.250000	-90.620552
20953.125000	-90.595474
21000.000000	-90.697319
21046.875000	-90.664444
21093.750000	-90.666046
21140.625000	-90.954132
21187.500000	-90.910225
21234.375000	-90.914719
21281.250000	-90.732651
21328.125000	-90.587189
21375.000000	-90.597382
21421.875000	-90.732239
21468.750000	-90.774498
21515.625000	-90.774277
21562.500000	-90.722893
21609.375000	-90.801125
21656.250000	-90.777275
21703.125000	-90.684937
21750.000000	-90.775513
21796.875000	-90.766418
21843.750000	-90.655769
21890.625000	-90.560936
21937.500000	-90.555321
21984.375000	-90.705139
22031.250000	-90.677040
22078.125000	-90.581215
22125.000000	-90.520538
22171.875000	-90.822472
22218.750000	-90.896805
22265.625000	-90.854675
22312.500000	-91.037254
22359.375000	-90.793060
22406.250000	-90.630531
22453.125000	-90.746048
22500.000000	-90.709961
22546.875000	-90.437279
22593.750000	-90.328812
22640.625000	-90.242439
22687.500000	-90.173531
22734.375000	-90.213226
22781.250000	-89.903442
22828.125000	-89.811935
22875.000000	-89.433136
22921.875000	-89.162201
22968.750000	-88.780685
23015.625000	-88.251724
23062.500000	-87.853745
23109.375000	-87.252007
23156.250000	-85.453949
23203.125000	-85.105858
23250.000000	-88.250839
23296.875000	-88.606102
23343.750000	-89.339226
23390.625000	-90.080078
23437.500000	-90.011772
23484.375000	-90.365631
23531.250000	-90.543770
23578.125000	-90.757935
23625.000000	-90.890793
23671.875000	-90.801346
23718.750000	-90.663361
23765.625000	-90.689964
23812.500000	-90.655563
23859.375000	-90.733009
23906.250000	-90.605347
23953.125000	-90.697304
